LabVIEW Measurement,
Writer_Version,2
Reader_Version,2
Separator,Comma
Decimal_Separator,.
Multi_Headings,Yes
X_Columns,Multi
Time_Pref,Relative
Operator,daq
Description,Transducer signal file .LVM (ASCII)
Date,2021/08/14
Time,19:22:50.834686279296875
***End_of_Header***,
,
Channels,1,
Samples,4000,
Date,1904/01/01,
Time,00:00:00,
X_Dimension,Time,
X0,0.0000000000000000E+0,
Delta_X,1.000000E-8,
***End_of_Header***,,
X_Value,Untitled,Comment
0.000000,0.000000
1.000000E-8,0.000000
2.000000E-8,0.000000
3.000000E-8,0.000000
4.000000E-8,0.000000
5.000000E-8,0.000000
6.000000E-8,0.000000
7.000000E-8,0.000000
8.000000E-8,0.000000
9.000000E-8,0.000000
1.000000E-7,0.000000
1.100000E-7,0.000000
1.200000E-7,0.000000
1.300000E-7,0.000000
1.400000E-7,0.000000
1.500000E-7,0.000000
1.600000E-7,0.000000
1.700000E-7,0.000000
1.800000E-7,0.000000
1.900000E-7,0.000000
2.000000E-7,0.000000
2.100000E-7,0.000000
2.200000E-7,0.000000
2.300000E-7,0.000000
2.400000E-7,0.000000
2.500000E-7,0.000000
2.600000E-7,0.000000
2.700000E-7,0.000000
2.800000E-7,0.000000
2.900000E-7,0.000000
3.000000E-7,0.000000
3.100000E-7,0.000000
3.200000E-7,0.000000
3.300000E-7,0.000000
3.400000E-7,0.000000
3.500000E-7,0.000000
3.600000E-7,0.000000
3.700000E-7,0.000000
3.800000E-7,0.000000
3.900000E-7,0.000000
4.000000E-7,0.000000
4.100000E-7,0.000000
4.200000E-7,0.000000
4.300000E-7,0.000000
4.400000E-7,0.000000
4.500000E-7,0.000000
4.600000E-7,0.000000
4.700000E-7,0.000000
4.800000E-7,0.000000
4.900000E-7,0.000000
5.000000E-7,0.000000
5.100000E-7,0.000000
5.200000E-7,0.000000
5.300000E-7,0.000000
5.400000E-7,0.000000
5.500000E-7,0.000000
5.600000E-7,0.000000
5.700000E-7,0.000000
5.800000E-7,0.000000
5.900000E-7,0.000000
6.000000E-7,0.000000
6.100000E-7,0.000000
6.200000E-7,0.000000
6.300000E-7,0.000000
6.400000E-7,0.000000
6.500000E-7,0.000000
6.600000E-7,0.000000
6.700000E-7,0.000000
6.800000E-7,0.000000
6.900000E-7,0.000000
7.000000E-7,0.000000
7.100000E-7,0.000000
7.200000E-7,0.000000
7.300000E-7,0.000000
7.400000E-7,0.000000
7.500000E-7,0.000000
7.600000E-7,0.000000
7.700000E-7,0.000000
7.800000E-7,0.000000
7.900000E-7,0.000000
8.000000E-7,0.000000
8.100000E-7,0.000000
8.200000E-7,0.000000
8.300000E-7,0.000000
8.400000E-7,0.000000
8.500000E-7,0.000000
8.600000E-7,0.000000
8.700000E-7,0.000000
8.800000E-7,0.000000
8.900000E-7,0.000000
9.000000E-7,0.000000
9.100000E-7,0.000000
9.200000E-7,0.000000
9.300000E-7,0.000000
9.400000E-7,0.000000
9.500000E-7,0.000000
9.600000E-7,0.000000
9.700000E-7,0.000000
9.800000E-7,0.000000
9.900000E-7,0.000000
1.000000E-6,0.000000
1.010000E-6,0.000000
1.020000E-6,0.000000
1.030000E-6,0.000000
1.040000E-6,0.000000
1.050000E-6,0.000000
1.060000E-6,0.000000
1.070000E-6,0.000000
1.080000E-6,0.000000
1.090000E-6,0.000000
1.100000E-6,0.000000
1.110000E-6,0.000000
1.120000E-6,0.000000
1.130000E-6,0.000000
1.140000E-6,0.000000
1.150000E-6,0.000000
1.160000E-6,0.000000
1.170000E-6,0.000000
1.180000E-6,0.000000
1.190000E-6,0.000000
1.200000E-6,0.000000
1.210000E-6,0.000000
1.220000E-6,0.000000
1.230000E-6,0.000000
1.240000E-6,0.000000
1.250000E-6,0.000000
1.260000E-6,0.000000
1.270000E-6,0.000000
1.280000E-6,0.000000
1.290000E-6,0.000000
1.300000E-6,0.000000
1.310000E-6,0.000000
1.320000E-6,0.000000
1.330000E-6,0.000000
1.340000E-6,0.000000
1.350000E-6,0.000000
1.360000E-6,0.000000
1.370000E-6,0.000000
1.380000E-6,0.000000
1.390000E-6,0.000000
1.400000E-6,0.000000
1.410000E-6,0.000000
1.420000E-6,0.000000
1.430000E-6,0.000000
1.440000E-6,0.000000
1.450000E-6,0.000000
1.460000E-6,0.000000
1.470000E-6,0.000000
1.480000E-6,0.000000
1.490000E-6,0.000000
1.500000E-6,0.000000
1.510000E-6,0.000000
1.520000E-6,0.000000
1.530000E-6,0.000000
1.540000E-6,0.000000
1.550000E-6,0.000000
1.560000E-6,0.000000
1.570000E-6,0.000000
1.580000E-6,0.000000
1.590000E-6,0.000000
1.600000E-6,0.000000
1.610000E-6,0.000000
1.620000E-6,0.000000
1.630000E-6,0.000000
1.640000E-6,0.000000
1.650000E-6,0.000000
1.660000E-6,0.000000
1.670000E-6,0.000000
1.680000E-6,0.000000
1.690000E-6,0.000000
1.700000E-6,0.000000
1.710000E-6,0.000000
1.720000E-6,0.000000
1.730000E-6,0.000000
1.740000E-6,0.000000
1.750000E-6,0.000000
1.760000E-6,0.000000
1.770000E-6,0.000000
1.780000E-6,0.000000
1.790000E-6,0.000000
1.800000E-6,0.000000
1.810000E-6,0.000000
1.820000E-6,0.000000
1.830000E-6,0.000000
1.840000E-6,0.000000
1.850000E-6,0.000000
1.860000E-6,0.000000
1.870000E-6,0.000000
1.880000E-6,0.000000
1.890000E-6,0.000000
1.900000E-6,0.000000
1.910000E-6,0.000000
1.920000E-6,0.000000
1.930000E-6,0.000000
1.940000E-6,0.000000
1.950000E-6,0.000000
1.960000E-6,0.000000
1.970000E-6,0.000000
1.980000E-6,0.000000
1.990000E-6,0.000000
2.000000E-6,-0.005203
2.010000E-6,-0.005235
2.020000E-6,-0.005292
2.030000E-6,-0.005291
2.040000E-6,-0.005249
2.050000E-6,-0.005202
2.060000E-6,-0.005177
2.070000E-6,-0.005171
2.080000E-6,-0.005133
2.090000E-6,-0.005060
2.100000E-6,-0.004988
2.110000E-6,-0.004933
2.120000E-6,-0.004897
2.130000E-6,-0.004826
2.140000E-6,-0.004704
2.150000E-6,-0.004590
2.160000E-6,-0.004500
2.170000E-6,-0.004427
2.180000E-6,-0.004326
2.190000E-6,-0.004183
2.200000E-6,-0.004060
2.210000E-6,-0.003953
2.220000E-6,-0.003859
2.230000E-6,-0.003734
2.240000E-6,-0.003575
2.250000E-6,-0.003441
2.260000E-6,-0.003301
2.270000E-6,-0.003163
2.280000E-6,-0.003005
2.290000E-6,-0.002789
2.300000E-6,-0.002596
2.310000E-6,-0.002452
2.320000E-6,-0.002314
2.330000E-6,-0.002143
2.340000E-6,-0.001910
2.350000E-6,-0.001693
2.360000E-6,-0.001520
2.370000E-6,-0.001343
2.380000E-6,-0.001130
2.390000E-6,-0.000873
2.400000E-6,-0.000659
2.410000E-6,-0.000512
2.420000E-6,-0.000361
2.430000E-6,-0.000154
2.440000E-6,0.000108
2.450000E-6,0.000326
2.460000E-6,0.000474
2.470000E-6,0.000618
2.480000E-6,0.000815
2.490000E-6,0.001059
2.500000E-6,0.001257
2.510000E-6,0.001405
2.520000E-6,0.001550
2.530000E-6,0.001708
2.540000E-6,0.001916
2.550000E-6,0.002084
2.560000E-6,0.002208
2.570000E-6,0.002353
2.580000E-6,0.002535
2.590000E-6,0.002744
2.600000E-6,0.002898
2.610000E-6,0.003007
2.620000E-6,0.003109
2.630000E-6,0.003245
2.640000E-6,0.003420
2.650000E-6,0.003536
2.660000E-6,0.003611
2.670000E-6,0.003706
2.680000E-6,0.003791
2.690000E-6,0.003888
2.700000E-6,0.003983
2.710000E-6,0.004100
2.720000E-6,0.004222
2.730000E-6,0.004298
2.740000E-6,0.004362
2.750000E-6,0.004386
2.760000E-6,0.004401
2.770000E-6,0.004449
2.780000E-6,0.004500
2.790000E-6,0.004526
2.800000E-6,0.004513
2.810000E-6,0.004520
2.820000E-6,0.004548
2.830000E-6,0.004566
2.840000E-6,0.004574
2.850000E-6,0.004552
2.860000E-6,0.004515
2.870000E-6,0.004477
2.880000E-6,0.004439
2.890000E-6,0.004394
2.900000E-6,0.004314
2.910000E-6,0.004239
2.920000E-6,0.004183
2.930000E-6,0.004115
2.940000E-6,0.004055
2.950000E-6,0.003978
2.960000E-6,0.003887
2.970000E-6,0.003772
2.980000E-6,0.003638
2.990000E-6,0.003536
3.000000E-6,0.003441
3.010000E-6,0.003326
3.020000E-6,0.003171
3.030000E-6,0.003017
3.040000E-6,0.002887
3.050000E-6,0.002750
3.060000E-6,0.002618
3.070000E-6,0.002467
3.080000E-6,0.002323
3.090000E-6,0.002203
3.100000E-6,0.002057
3.110000E-6,0.001893
3.120000E-6,0.001719
3.130000E-6,0.001556
3.140000E-6,0.001430
3.150000E-6,0.001303
3.160000E-6,0.001143
3.170000E-6,0.000961
3.180000E-6,0.000805
3.190000E-6,0.000665
3.200000E-6,0.000509
3.210000E-6,0.000350
3.220000E-6,0.000160
3.230000E-6,5.617003E-7
3.240000E-6,-0.000118
3.250000E-6,-0.000265
3.260000E-6,-0.000426
3.270000E-6,-0.000589
3.280000E-6,-0.000727
3.290000E-6,-0.000844
3.300000E-6,-0.000981
3.310000E-6,-0.001114
3.320000E-6,-0.001255
3.330000E-6,-0.001385
3.340000E-6,-0.001483
3.350000E-6,-0.001599
3.360000E-6,-0.001698
3.370000E-6,-0.001806
3.380000E-6,-0.001927
3.390000E-6,-0.002013
3.400000E-6,-0.002093
3.410000E-6,-0.002169
3.420000E-6,-0.002269
3.430000E-6,-0.002378
3.440000E-6,-0.002452
3.450000E-6,-0.002510
3.460000E-6,-0.002562
3.470000E-6,-0.002648
3.480000E-6,-0.002733
3.490000E-6,-0.002766
3.500000E-6,-0.002788
3.510000E-6,-0.002803
3.520000E-6,-0.002855
3.530000E-6,-0.002923
3.540000E-6,-0.002938
3.550000E-6,-0.002947
3.560000E-6,-0.002959
3.570000E-6,-0.002983
3.580000E-6,-0.003005
3.590000E-6,-0.002981
3.600000E-6,-0.002958
3.610000E-6,-0.002940
3.620000E-6,-0.002947
3.630000E-6,-0.002940
3.640000E-6,-0.002890
3.650000E-6,-0.002867
3.660000E-6,-0.002849
3.670000E-6,-0.002849
3.680000E-6,-0.002819
3.690000E-6,-0.002734
3.700000E-6,-0.002673
3.710000E-6,-0.002629
3.720000E-6,-0.002597
3.730000E-6,-0.002525
3.740000E-6,-0.002418
3.750000E-6,-0.002347
3.760000E-6,-0.002288
3.770000E-6,-0.002255
3.780000E-6,-0.002191
3.790000E-6,-0.002083
3.800000E-6,-0.001997
3.810000E-6,-0.001911
3.820000E-6,-0.001839
3.830000E-6,-0.001738
3.840000E-6,-0.001618
3.850000E-6,-0.001520
3.860000E-6,-0.001411
3.870000E-6,-0.001320
3.880000E-6,-0.001216
3.890000E-6,-0.001086
3.900000E-6,-0.000975
3.910000E-6,-0.000877
3.920000E-6,-0.000793
3.930000E-6,-0.000678
3.940000E-6,-0.000541
3.950000E-6,-0.000447
3.960000E-6,-0.000360
3.970000E-6,-0.000281
3.980000E-6,-0.000187
3.990000E-6,-6.712922E-5
4.000000E-6,2.118789E-5
4.010000E-6,0.000108
4.020000E-6,0.000201
4.030000E-6,0.000320
4.040000E-6,0.000446
4.050000E-6,0.000542
4.060000E-6,0.000650
4.070000E-6,0.000732
4.080000E-6,0.000825
4.090000E-6,0.000919
4.100000E-6,0.000979
4.110000E-6,0.001062
4.120000E-6,0.001127
4.130000E-6,0.001184
4.140000E-6,0.001239
4.150000E-6,0.001265
4.160000E-6,0.001323
4.170000E-6,0.001396
4.180000E-6,0.001466
4.190000E-6,0.001540
4.200000E-6,0.001584
4.210000E-6,0.001623
4.220000E-6,0.001648
4.230000E-6,0.001668
4.240000E-6,0.001699
4.250000E-6,0.001702
4.260000E-6,0.001696
4.270000E-6,0.001721
4.280000E-6,0.001746
4.290000E-6,0.001762
4.300000E-6,0.001759
4.310000E-6,0.001751
4.320000E-6,0.001762
4.330000E-6,0.001768
4.340000E-6,0.001781
4.350000E-6,0.001781
4.360000E-6,0.001756
4.370000E-6,0.001746
4.380000E-6,0.001735
4.390000E-6,0.001726
4.400000E-6,0.001700
4.410000E-6,0.001666
4.420000E-6,0.001674
4.430000E-6,0.001682
4.440000E-6,0.001681
4.450000E-6,0.001654
4.460000E-6,0.001618
4.470000E-6,0.001600
4.480000E-6,0.001567
4.490000E-6,0.001546
4.500000E-6,0.001515
4.510000E-6,0.001472
4.520000E-6,0.001442
4.530000E-6,0.001402
4.540000E-6,0.001363
4.550000E-6,0.001301
4.560000E-6,0.001221
4.570000E-6,0.001184
4.580000E-6,0.001139
4.590000E-6,0.001087
4.600000E-6,0.001034
4.610000E-6,0.000966
4.620000E-6,0.000937
4.630000E-6,0.000897
4.640000E-6,0.000837
4.650000E-6,0.000774
4.660000E-6,0.000689
4.670000E-6,0.000631
4.680000E-6,0.000575
4.690000E-6,0.000498
4.700000E-6,0.000431
4.710000E-6,0.000362
4.720000E-6,0.000332
4.730000E-6,0.000317
4.740000E-6,0.000274
4.750000E-6,0.000226
4.760000E-6,0.000186
4.770000E-6,0.000162
4.780000E-6,0.000129
4.790000E-6,8.416562E-5
4.800000E-6,2.294555E-5
4.810000E-6,-3.410219E-5
4.820000E-6,-5.985025E-5
4.830000E-6,-9.037986E-5
4.840000E-6,-0.000139
4.850000E-6,-0.000193
4.860000E-6,-0.000240
4.870000E-6,-0.000265
4.880000E-6,-0.000290
4.890000E-6,-0.000337
4.900000E-6,-0.000386
4.910000E-6,-0.000427
4.920000E-6,-0.000458
4.930000E-6,-0.000502
4.940000E-6,-0.000546
4.950000E-6,-0.000566
4.960000E-6,-0.000583
4.970000E-6,-0.000596
4.980000E-6,-0.000615
4.990000E-6,-0.000631
5.000000E-6,-0.000657
5.010000E-6,-0.000683
5.020000E-6,-0.000688
5.030000E-6,-0.000712
5.040000E-6,-0.000735
5.050000E-6,-0.000749
5.060000E-6,-0.000768
5.070000E-6,-0.000783
5.080000E-6,-0.000806
5.090000E-6,-0.000820
5.100000E-6,-0.000831
5.110000E-6,-0.000860
5.120000E-6,-0.000881
5.130000E-6,-0.000896
5.140000E-6,-0.000903
5.150000E-6,-0.000900
5.160000E-6,-0.000912
5.170000E-6,-0.000917
5.180000E-6,-0.000925
5.190000E-6,-0.000928
5.200000E-6,-0.000914
5.210000E-6,-0.000912
5.220000E-6,-0.000907
5.230000E-6,-0.000913
5.240000E-6,-0.000911
5.250000E-6,-0.000884
5.260000E-6,-0.000867
5.270000E-6,-0.000851
5.280000E-6,-0.000838
5.290000E-6,-0.000829
5.300000E-6,-0.000818
5.310000E-6,-0.000808
5.320000E-6,-0.000796
5.330000E-6,-0.000785
5.340000E-6,-0.000765
5.350000E-6,-0.000756
5.360000E-6,-0.000752
5.370000E-6,-0.000730
5.380000E-6,-0.000727
5.390000E-6,-0.000725
5.400000E-6,-0.000718
5.410000E-6,-0.000727
5.420000E-6,-0.000712
5.430000E-6,-0.000700
5.440000E-6,-0.000690
5.450000E-6,-0.000679
5.460000E-6,-0.000686
5.470000E-6,-0.000684
5.480000E-6,-0.000686
5.490000E-6,-0.000670
5.500000E-6,-0.000655
5.510000E-6,-0.000656
5.520000E-6,-0.000635
5.530000E-6,-0.000604
5.540000E-6,-0.000584
5.550000E-6,-0.000571
5.560000E-6,-0.000559
5.570000E-6,-0.000546
5.580000E-6,-0.000527
5.590000E-6,-0.000489
5.600000E-6,-0.000448
5.610000E-6,-0.000432
5.620000E-6,-0.000419
5.630000E-6,-0.000394
5.640000E-6,-0.000378
5.650000E-6,-0.000373
5.660000E-6,-0.000357
5.670000E-6,-0.000316
5.680000E-6,-0.000270
5.690000E-6,-0.000232
5.700000E-6,-0.000210
5.710000E-6,-0.000190
5.720000E-6,-0.000146
5.730000E-6,-0.000103
5.740000E-6,-8.075327E-5
5.750000E-6,-7.875267E-5
5.760000E-6,-4.951070E-5
5.770000E-6,1.368875E-5
5.780000E-6,6.481632E-5
5.790000E-6,9.064282E-5
5.800000E-6,8.041024E-5
5.810000E-6,9.179789E-5
5.820000E-6,0.000143
5.830000E-6,0.000185
5.840000E-6,0.000213
5.850000E-6,0.000209
5.860000E-6,0.000230
5.870000E-6,0.000294
5.880000E-6,0.000337
5.890000E-6,0.000359
5.900000E-6,0.000357
5.910000E-6,0.000368
5.920000E-6,0.000413
5.930000E-6,0.000463
5.940000E-6,0.000494
5.950000E-6,0.000499
5.960000E-6,0.000534
5.970000E-6,0.000599
5.980000E-6,0.000661
5.990000E-6,0.000709
6.000000E-6,0.000692
6.010000E-6,0.000692
6.020000E-6,0.000741
6.030000E-6,0.000762
6.040000E-6,0.000774
6.050000E-6,0.000770
6.060000E-6,0.000794
6.070000E-6,0.000853
6.080000E-6,0.000891
6.090000E-6,0.000897
6.100000E-6,0.000865
6.110000E-6,0.000861
6.120000E-6,0.000901
6.130000E-6,0.000921
6.140000E-6,0.000902
6.150000E-6,0.000864
6.160000E-6,0.000868
6.170000E-6,0.000912
6.180000E-6,0.000950
6.190000E-6,0.000950
6.200000E-6,0.000919
6.210000E-6,0.000925
6.220000E-6,0.000958
6.230000E-6,0.000963
6.240000E-6,0.000930
6.250000E-6,0.000896
6.260000E-6,0.000892
6.270000E-6,0.000890
6.280000E-6,0.000873
6.290000E-6,0.000825
6.300000E-6,0.000794
6.310000E-6,0.000812
6.320000E-6,0.000824
6.330000E-6,0.000807
6.340000E-6,0.000784
6.350000E-6,0.000782
6.360000E-6,0.000781
6.370000E-6,0.000766
6.380000E-6,0.000738
6.390000E-6,0.000701
6.400000E-6,0.000685
6.410000E-6,0.000683
6.420000E-6,0.000663
6.430000E-6,0.000623
6.440000E-6,0.000586
6.450000E-6,0.000553
6.460000E-6,0.000540
6.470000E-6,0.000520
6.480000E-6,0.000483
6.490000E-6,0.000443
6.500000E-6,0.000404
6.510000E-6,0.000389
6.520000E-6,0.000366
6.530000E-6,0.000306
6.540000E-6,0.000252
6.550000E-6,0.000234
6.560000E-6,0.000233
6.570000E-6,0.000209
6.580000E-6,0.000152
6.590000E-6,0.000105
6.600000E-6,9.771210E-5
6.610000E-6,9.986373E-5
6.620000E-6,6.876047E-5
6.630000E-6,5.681165E-6
6.640000E-6,-5.701502E-5
6.650000E-6,-9.593651E-5
6.660000E-6,-0.000114
6.670000E-6,-0.000152
6.680000E-6,-0.000224
6.690000E-6,-0.000279
6.700000E-6,-0.000279
6.710000E-6,-0.000271
6.720000E-6,-0.000314
6.730000E-6,-0.000379
6.740000E-6,-0.000421
6.750000E-6,-0.000434
6.760000E-6,-0.000449
6.770000E-6,-0.000491
6.780000E-6,-0.000543
6.790000E-6,-0.000569
6.800000E-6,-0.000560
6.810000E-6,-0.000554
6.820000E-6,-0.000588
6.830000E-6,-0.000628
6.840000E-6,-0.000631
6.850000E-6,-0.000634
6.860000E-6,-0.000650
6.870000E-6,-0.000670
6.880000E-6,-0.000708
6.890000E-6,-0.000720
6.900000E-6,-0.000726
6.910000E-6,-0.000755
6.920000E-6,-0.000791
6.930000E-6,-0.000816
6.940000E-6,-0.000809
6.950000E-6,-0.000794
6.960000E-6,-0.000802
6.970000E-6,-0.000819
6.980000E-6,-0.000815
6.990000E-6,-0.000792
7.000000E-6,-0.000774
7.010000E-6,-0.000774
7.020000E-6,-0.000780
7.030000E-6,-0.000772
7.040000E-6,-0.000750
7.050000E-6,-0.000733
7.060000E-6,-0.000718
7.070000E-6,-0.000717
7.080000E-6,-0.000706
7.090000E-6,-0.000669
7.100000E-6,-0.000650
7.110000E-6,-0.000640
7.120000E-6,-0.000636
7.130000E-6,-0.000615
7.140000E-6,-0.000570
7.150000E-6,-0.000548
7.160000E-6,-0.000516
7.170000E-6,-0.000496
7.180000E-6,-0.000489
7.190000E-6,-0.000440
7.200000E-6,-0.000422
7.210000E-6,-0.000408
7.220000E-6,-0.000387
7.230000E-6,-0.000370
7.240000E-6,-0.000306
7.250000E-6,-0.000286
7.260000E-6,-0.000289
7.270000E-6,-0.000259
7.280000E-6,-0.000231
7.290000E-6,-0.000168
7.300000E-6,-0.000122
7.310000E-6,-9.416338E-5
7.320000E-6,-4.155518E-5
7.330000E-6,9.170604E-6
7.340000E-6,6.577455E-5
7.350000E-6,8.716138E-5
7.360000E-6,9.790978E-5
7.370000E-6,0.000126
7.380000E-6,0.000144
7.390000E-6,0.000170
7.400000E-6,0.000194
7.410000E-6,0.000235
7.420000E-6,0.000274
7.430000E-6,0.000303
7.440000E-6,0.000334
7.450000E-6,0.000348
7.460000E-6,0.000389
7.470000E-6,0.000441
7.480000E-6,0.000470
7.490000E-6,0.000493
7.500000E-6,0.000498
7.510000E-6,0.000513
7.520000E-6,0.000541
7.530000E-6,0.000575
7.540000E-6,0.000623
7.550000E-6,0.000636
7.560000E-6,0.000662
7.570000E-6,0.000695
7.580000E-6,0.000712
7.590000E-6,0.000747
7.600000E-6,0.000743
7.610000E-6,0.000742
7.620000E-6,0.000759
7.630000E-6,0.000782
7.640000E-6,0.000814
7.650000E-6,0.000823
7.660000E-6,0.000834
7.670000E-6,0.000829
7.680000E-6,0.000841
7.690000E-6,0.000865
7.700000E-6,0.000858
7.710000E-6,0.000859
7.720000E-6,0.000857
7.730000E-6,0.000861
7.740000E-6,0.000874
7.750000E-6,0.000887
7.760000E-6,0.000899
7.770000E-6,0.000899
7.780000E-6,0.000910
7.790000E-6,0.000914
7.800000E-6,0.000891
7.810000E-6,0.000869
7.820000E-6,0.000855
7.830000E-6,0.000844
7.840000E-6,0.000822
7.850000E-6,0.000782
7.860000E-6,0.000754
7.870000E-6,0.000721
7.880000E-6,0.000685
7.890000E-6,0.000651
7.900000E-6,0.000620
7.910000E-6,0.000591
7.920000E-6,0.000556
7.930000E-6,0.000537
7.940000E-6,0.000517
7.950000E-6,0.000468
7.960000E-6,0.000429
7.970000E-6,0.000420
7.980000E-6,0.000394
7.990000E-6,0.000346
8.000000E-6,0.000293
8.010000E-6,0.000256
8.020000E-6,0.000227
8.030000E-6,0.000181
8.040000E-6,0.000121
8.050000E-6,5.964601E-5
8.060000E-6,1.569521E-5
8.070000E-6,-2.276871E-5
8.080000E-6,-7.919776E-5
8.090000E-6,-0.000153
8.100000E-6,-0.000222
8.110000E-6,-0.000270
8.120000E-6,-0.000304
8.130000E-6,-0.000339
8.140000E-6,-0.000395
8.150000E-6,-0.000449
8.160000E-6,-0.000492
8.170000E-6,-0.000527
8.180000E-6,-0.000565
8.190000E-6,-0.000613
8.200000E-6,-0.000655
8.210000E-6,-0.000690
8.220000E-6,-0.000714
8.230000E-6,-0.000757
8.240000E-6,-0.000812
8.250000E-6,-0.000854
8.260000E-6,-0.000877
8.270000E-6,-0.000889
8.280000E-6,-0.000926
8.290000E-6,-0.000962
8.300000E-6,-0.000980
8.310000E-6,-0.000995
8.320000E-6,-0.001013
8.330000E-6,-0.001036
8.340000E-6,-0.001042
8.350000E-6,-0.001063
8.360000E-6,-0.001081
8.370000E-6,-0.001093
8.380000E-6,-0.001142
8.390000E-6,-0.001173
8.400000E-6,-0.001176
8.410000E-6,-0.001179
8.420000E-6,-0.001171
8.430000E-6,-0.001194
8.440000E-6,-0.001213
8.450000E-6,-0.001217
8.460000E-6,-0.001225
8.470000E-6,-0.001209
8.480000E-6,-0.001231
8.490000E-6,-0.001239
8.500000E-6,-0.001215
8.510000E-6,-0.001200
8.520000E-6,-0.001190
8.530000E-6,-0.001209
8.540000E-6,-0.001200
8.550000E-6,-0.001164
8.560000E-6,-0.001144
8.570000E-6,-0.001107
8.580000E-6,-0.001074
8.590000E-6,-0.001042
8.600000E-6,-0.001007
8.610000E-6,-0.000980
8.620000E-6,-0.000930
8.630000E-6,-0.000889
8.640000E-6,-0.000835
8.650000E-6,-0.000766
8.660000E-6,-0.000732
8.670000E-6,-0.000682
8.680000E-6,-0.000654
8.690000E-6,-0.000642
8.700000E-6,-0.000606
8.710000E-6,-0.000586
8.720000E-6,-0.000548
8.730000E-6,-0.000505
8.740000E-6,-0.000461
8.750000E-6,-0.000418
8.760000E-6,-0.000384
8.770000E-6,-0.000332
8.780000E-6,-0.000300
8.790000E-6,-0.000276
8.800000E-6,-0.000245
8.810000E-6,-0.000222
8.820000E-6,-0.000180
8.830000E-6,-0.000157
8.840000E-6,-0.000135
8.850000E-6,-9.992216E-5
8.860000E-6,-6.387028E-5
8.870000E-6,-7.687345E-6
8.880000E-6,7.580773E-6
8.890000E-6,2.421451E-5
8.900000E-6,6.350375E-5
8.910000E-6,0.000107
8.920000E-6,0.000137
8.930000E-6,0.000133
8.940000E-6,0.000148
8.950000E-6,0.000184
8.960000E-6,0.000230
8.970000E-6,0.000266
8.980000E-6,0.000255
8.990000E-6,0.000270
9.000000E-6,0.000323
9.010000E-6,0.000363
9.020000E-6,0.000388
9.030000E-6,0.000390
9.040000E-6,0.000407
9.050000E-6,0.000430
9.060000E-6,0.000456
9.070000E-6,0.000490
