LabVIEW Measurement,
Writer_Version,2
Reader_Version,2
Separator,Comma
Decimal_Separator,.
Multi_Headings,Yes
X_Columns,Multi
Time_Pref,Relative
Operator,daq
Description,Transducer signal file .LVM (ASCII)
Date,2022/06/23
Time,18:01:19.3878006935119628906
***End_of_Header***,
,
Channels,1,
Samples,8000,
Date,1904/01/01,
Time,00:00:00,
X_Dimension,Time,
X0,0.0000000000000000E+0,
Delta_X,1.000000E-8,
***End_of_Header***,,
X_Value,Untitled,Comment
0.000000,0.000000
1.000000E-8,0.000000
2.000000E-8,0.000000
3.000000E-8,0.000000
4.000000E-8,0.000000
5.000000E-8,0.000000
6.000000E-8,0.000000
7.000000E-8,0.000000
8.000000E-8,0.000000
9.000000E-8,0.000000
1.000000E-7,0.000000
1.100000E-7,0.000000
1.200000E-7,0.000000
1.300000E-7,0.000000
1.400000E-7,0.000000
1.500000E-7,0.000000
1.600000E-7,0.000000
1.700000E-7,0.000000
1.800000E-7,0.000000
1.900000E-7,0.000000
2.000000E-7,0.000000
2.100000E-7,0.000000
2.200000E-7,0.000000
2.300000E-7,0.000000
2.400000E-7,0.000000
2.500000E-7,0.000000
2.600000E-7,0.000000
2.700000E-7,0.000000
2.800000E-7,0.000000
2.900000E-7,0.000000
3.000000E-7,0.000000
3.100000E-7,0.000000
3.200000E-7,0.000000
3.300000E-7,0.000000
3.400000E-7,0.000000
3.500000E-7,0.000000
3.600000E-7,0.000000
3.700000E-7,0.000000
3.800000E-7,0.000000
3.900000E-7,0.000000
4.000000E-7,0.000000
4.100000E-7,0.000000
4.200000E-7,0.000000
4.300000E-7,0.000000
4.400000E-7,0.000000
4.500000E-7,0.000000
4.600000E-7,0.000000
4.700000E-7,0.000000
4.800000E-7,0.000000
4.900000E-7,0.000000
5.000000E-7,0.000000
5.100000E-7,0.000000
5.200000E-7,0.000000
5.300000E-7,0.000000
5.400000E-7,0.000000
5.500000E-7,0.000000
5.600000E-7,0.000000
5.700000E-7,0.000000
5.800000E-7,0.000000
5.900000E-7,0.000000
6.000000E-7,0.000000
6.100000E-7,0.000000
6.200000E-7,0.000000
6.300000E-7,0.000000
6.400000E-7,0.000000
6.500000E-7,0.000000
6.600000E-7,0.000000
6.700000E-7,0.000000
6.800000E-7,0.000000
6.900000E-7,0.000000
7.000000E-7,0.000000
7.100000E-7,0.000000
7.200000E-7,0.000000
7.300000E-7,0.000000
7.400000E-7,0.000000
7.500000E-7,0.000000
7.600000E-7,0.000000
7.700000E-7,0.000000
7.800000E-7,0.000000
7.900000E-7,0.000000
8.000000E-7,0.000000
8.100000E-7,0.000000
8.200000E-7,0.000000
8.300000E-7,0.000000
8.400000E-7,0.000000
8.500000E-7,0.000000
8.600000E-7,0.000000
8.700000E-7,0.000000
8.800000E-7,0.000000
8.900000E-7,0.000000
9.000000E-7,0.000000
9.100000E-7,0.000000
9.200000E-7,0.000000
9.300000E-7,0.000000
9.400000E-7,0.000000
9.500000E-7,0.000000
9.600000E-7,0.000000
9.700000E-7,0.000000
9.800000E-7,0.000000
9.900000E-7,0.000000
1.000000E-6,0.000000
1.010000E-6,0.000000
1.020000E-6,0.000000
1.030000E-6,0.000000
1.040000E-6,0.000000
1.050000E-6,0.000000
1.060000E-6,0.000000
1.070000E-6,0.000000
1.080000E-6,0.000000
1.090000E-6,0.000000
1.100000E-6,0.000000
1.110000E-6,0.000000
1.120000E-6,0.000000
1.130000E-6,0.000000
1.140000E-6,0.000000
1.150000E-6,0.000000
1.160000E-6,0.000000
1.170000E-6,0.000000
1.180000E-6,0.000000
1.190000E-6,0.000000
1.200000E-6,0.000000
1.210000E-6,0.000000
1.220000E-6,0.000000
1.230000E-6,0.000000
1.240000E-6,0.000000
1.250000E-6,0.000000
1.260000E-6,0.000000
1.270000E-6,0.000000
1.280000E-6,0.000000
1.290000E-6,0.000000
1.300000E-6,0.000000
1.310000E-6,0.000000
1.320000E-6,0.000000
1.330000E-6,0.000000
1.340000E-6,0.000000
1.350000E-6,0.000000
1.360000E-6,0.000000
1.370000E-6,0.000000
1.380000E-6,0.000000
1.390000E-6,0.000000
1.400000E-6,0.000000
1.410000E-6,0.000000
1.420000E-6,0.000000
1.430000E-6,0.000000
1.440000E-6,0.000000
1.450000E-6,0.000000
1.460000E-6,0.000000
1.470000E-6,0.000000
1.480000E-6,0.000000
1.490000E-6,0.000000
1.500000E-6,0.000000
1.510000E-6,0.000000
1.520000E-6,0.000000
1.530000E-6,0.000000
1.540000E-6,0.000000
1.550000E-6,0.000000
1.560000E-6,0.000000
1.570000E-6,0.000000
1.580000E-6,0.000000
1.590000E-6,0.000000
1.600000E-6,0.000000
1.610000E-6,0.000000
1.620000E-6,0.000000
1.630000E-6,0.000000
1.640000E-6,0.000000
1.650000E-6,0.000000
1.660000E-6,0.000000
1.670000E-6,0.000000
1.680000E-6,0.000000
1.690000E-6,0.000000
1.700000E-6,0.000000
1.710000E-6,0.000000
1.720000E-6,0.000000
1.730000E-6,0.000000
1.740000E-6,0.000000
1.750000E-6,0.000000
1.760000E-6,0.000000
1.770000E-6,0.000000
1.780000E-6,0.000000
1.790000E-6,0.000000
1.800000E-6,0.000000
1.810000E-6,0.000000
1.820000E-6,0.000000
1.830000E-6,0.000000
1.840000E-6,0.000000
1.850000E-6,0.000000
1.860000E-6,0.000000
1.870000E-6,0.000000
1.880000E-6,0.000000
1.890000E-6,0.000000
1.900000E-6,0.000000
1.910000E-6,0.000000
1.920000E-6,0.000000
1.930000E-6,0.000000
1.940000E-6,0.000000
1.950000E-6,0.000000
1.960000E-6,0.000000
1.970000E-6,0.000000
1.980000E-6,0.000000
1.990000E-6,0.000000
2.000000E-6,0.000875
2.010000E-6,0.000827
2.020000E-6,0.000780
2.030000E-6,0.000719
2.040000E-6,0.000688
2.050000E-6,0.000714
2.060000E-6,0.000730
2.070000E-6,0.000788
2.080000E-6,0.000778
2.090000E-6,0.000682
2.100000E-6,0.000638
2.110000E-6,0.000524
2.120000E-6,0.000398
2.130000E-6,0.000377
2.140000E-6,0.000370
2.150000E-6,0.000384
2.160000E-6,0.000390
2.170000E-6,0.000345
2.180000E-6,0.000194
2.190000E-6,7.000948E-5
2.200000E-6,4.312901E-5
2.210000E-6,-3.276155E-5
2.220000E-6,-0.000170
2.230000E-6,-0.000309
2.240000E-6,-0.000414
2.250000E-6,-0.000486
2.260000E-6,-0.000497
2.270000E-6,-0.000443
2.280000E-6,-0.000454
2.290000E-6,-0.000515
2.300000E-6,-0.000493
2.310000E-6,-0.000444
2.320000E-6,-0.000452
2.330000E-6,-0.000445
2.340000E-6,-0.000367
2.350000E-6,-0.000312
2.360000E-6,-0.000330
2.370000E-6,-0.000390
2.380000E-6,-0.000411
2.390000E-6,-0.000331
2.400000E-6,-0.000303
2.410000E-6,-0.000319
2.420000E-6,-0.000326
2.430000E-6,-0.000318
2.440000E-6,-0.000346
2.450000E-6,-0.000380
2.460000E-6,-0.000390
2.470000E-6,-0.000470
2.480000E-6,-0.000533
2.490000E-6,-0.000592
2.500000E-6,-0.000577
2.510000E-6,-0.000526
2.520000E-6,-0.000541
2.530000E-6,-0.000553
2.540000E-6,-0.000558
2.550000E-6,-0.000504
2.560000E-6,-0.000437
2.570000E-6,-0.000415
2.580000E-6,-0.000407
2.590000E-6,-0.000471
2.600000E-6,-0.000538
2.610000E-6,-0.000531
2.620000E-6,-0.000487
2.630000E-6,-0.000409
2.640000E-6,-0.000304
2.650000E-6,-0.000260
2.660000E-6,-0.000281
2.670000E-6,-0.000358
2.680000E-6,-0.000361
2.690000E-6,-0.000313
2.700000E-6,-0.000316
2.710000E-6,-0.000275
2.720000E-6,-0.000200
2.730000E-6,-0.000185
2.740000E-6,-0.000170
2.750000E-6,-0.000155
2.760000E-6,-0.000197
2.770000E-6,-0.000231
2.780000E-6,-0.000313
2.790000E-6,-0.000427
2.800000E-6,-0.000493
2.810000E-6,-0.000542
2.820000E-6,-0.000531
2.830000E-6,-0.000455
2.840000E-6,-0.000346
2.850000E-6,-0.000262
2.860000E-6,-0.000259
2.870000E-6,-0.000270
2.880000E-6,-0.000302
2.890000E-6,-0.000346
2.900000E-6,-0.000309
2.910000E-6,-0.000331
2.920000E-6,-0.000430
2.930000E-6,-0.000445
2.940000E-6,-0.000417
2.950000E-6,-0.000446
2.960000E-6,-0.000417
2.970000E-6,-0.000309
2.980000E-6,-0.000255
2.990000E-6,-0.000181
3.000000E-6,-0.000167
3.010000E-6,-0.000274
3.020000E-6,-0.000391
3.030000E-6,-0.000417
3.040000E-6,-0.000392
3.050000E-6,-0.000396
3.060000E-6,-0.000434
3.070000E-6,-0.000450
3.080000E-6,-0.000485
3.090000E-6,-0.000582
3.100000E-6,-0.000640
3.110000E-6,-0.000615
3.120000E-6,-0.000612
3.130000E-6,-0.000651
3.140000E-6,-0.000624
3.150000E-6,-0.000575
3.160000E-6,-0.000562
3.170000E-6,-0.000571
3.180000E-6,-0.000542
3.190000E-6,-0.000514
3.200000E-6,-0.000551
3.210000E-6,-0.000585
3.220000E-6,-0.000567
3.230000E-6,-0.000563
3.240000E-6,-0.000573
3.250000E-6,-0.000560
3.260000E-6,-0.000568
3.270000E-6,-0.000446
3.280000E-6,-0.000271
3.290000E-6,-0.000217
3.300000E-6,-0.000235
3.310000E-6,-0.000217
3.320000E-6,-0.000263
3.330000E-6,-0.000350
3.340000E-6,-0.000290
3.350000E-6,-0.000275
3.360000E-6,-0.000325
3.370000E-6,-0.000357
3.380000E-6,-0.000360
3.390000E-6,-0.000390
3.400000E-6,-0.000433
3.410000E-6,-0.000381
3.420000E-6,-0.000380
3.430000E-6,-0.000386
3.440000E-6,-0.000362
3.450000E-6,-0.000382
3.460000E-6,-0.000314
3.470000E-6,-0.000242
3.480000E-6,-0.000214
3.490000E-6,-0.000245
3.500000E-6,-0.000302
3.510000E-6,-0.000257
3.520000E-6,-0.000206
3.530000E-6,-0.000178
3.540000E-6,-0.000172
3.550000E-6,-0.000223
3.560000E-6,-0.000229
3.570000E-6,-0.000206
3.580000E-6,-0.000184
3.590000E-6,-0.000162
3.600000E-6,-0.000198
3.610000E-6,-0.000232
3.620000E-6,-0.000179
3.630000E-6,-8.453062E-5
3.640000E-6,-4.358028E-5
3.650000E-6,-4.077808E-6
3.660000E-6,3.396916E-5
3.670000E-6,-6.499045E-5
3.680000E-6,-0.000160
3.690000E-6,-0.000152
3.700000E-6,-0.000172
3.710000E-6,-0.000212
3.720000E-6,-0.000201
3.730000E-6,-0.000154
3.740000E-6,-0.000131
3.750000E-6,-0.000157
3.760000E-6,-0.000169
3.770000E-6,-0.000158
3.780000E-6,-0.000154
3.790000E-6,-0.000179
3.800000E-6,-0.000181
3.810000E-6,-0.000183
3.820000E-6,-0.000206
3.830000E-6,-0.000192
3.840000E-6,-0.000129
3.850000E-6,-1.724359E-5
3.860000E-6,4.011353E-5
3.870000E-6,3.821393E-5
3.880000E-6,4.345939E-5
3.890000E-6,7.697938E-5
3.900000E-6,0.000102
3.910000E-6,0.000112
3.920000E-6,0.000135
3.930000E-6,0.000179
3.940000E-6,0.000164
3.950000E-6,0.000156
3.960000E-6,0.000134
3.970000E-6,7.673242E-5
3.980000E-6,5.732472E-5
3.990000E-6,1.714438E-5
4.000000E-6,-2.157562E-5
4.010000E-6,-2.315932E-5
4.020000E-6,6.095946E-5
4.030000E-6,0.000120
4.040000E-6,0.000142
4.050000E-6,0.000234
4.060000E-6,0.000322
4.070000E-6,0.000299
4.080000E-6,0.000269
4.090000E-6,0.000298
4.100000E-6,0.000317
4.110000E-6,0.000307
4.120000E-6,0.000276
4.130000E-6,0.000237
4.140000E-6,0.000186
4.150000E-6,0.000179
4.160000E-6,0.000237
4.170000E-6,0.000263
4.180000E-6,0.000252
4.190000E-6,0.000270
4.200000E-6,0.000237
4.210000E-6,0.000204
4.220000E-6,0.000237
4.230000E-6,0.000283
4.240000E-6,0.000290
4.250000E-6,0.000290
4.260000E-6,0.000246
4.270000E-6,0.000161
4.280000E-6,7.923392E-5
4.290000E-6,-7.145292E-6
4.300000E-6,-2.611090E-5
4.310000E-6,1.273778E-5
4.320000E-6,7.325107E-6
4.330000E-6,-4.070261E-5
4.340000E-6,-7.262194E-5
4.350000E-6,-0.000103
4.360000E-6,-0.000147
4.370000E-6,-0.000146
4.380000E-6,-0.000123
4.390000E-6,-0.000130
4.400000E-6,-0.000129
4.410000E-6,-0.000142
4.420000E-6,-0.000133
4.430000E-6,-0.000174
4.440000E-6,-0.000299
4.450000E-6,-0.000376
4.460000E-6,-0.000435
4.470000E-6,-0.000441
4.480000E-6,-0.000383
4.490000E-6,-0.000368
4.500000E-6,-0.000418
4.510000E-6,-0.000459
4.520000E-6,-0.000497
4.530000E-6,-0.000461
4.540000E-6,-0.000398
4.550000E-6,-0.000407
4.560000E-6,-0.000395
4.570000E-6,-0.000353
4.580000E-6,-0.000299
4.590000E-6,-0.000324
4.600000E-6,-0.000326
4.610000E-6,-0.000243
4.620000E-6,-0.000240
4.630000E-6,-0.000245
4.640000E-6,-0.000191
4.650000E-6,-0.000204
4.660000E-6,-0.000194
4.670000E-6,-9.214024E-5
4.680000E-6,-2.206278E-5
4.690000E-6,-4.728639E-5
4.700000E-6,-5.010128E-5
4.710000E-6,-5.986836E-5
4.720000E-6,-9.058320E-5
4.730000E-6,-9.861902E-5
4.740000E-6,-0.000163
4.750000E-6,-0.000125
4.760000E-6,-3.168311E-5
4.770000E-6,-3.411519E-5
4.780000E-6,4.206958E-5
4.790000E-6,0.000172
4.800000E-6,0.000191
4.810000E-6,0.000201
4.820000E-6,0.000282
4.830000E-6,0.000359
4.840000E-6,0.000369
4.850000E-6,0.000328
4.860000E-6,0.000323
4.870000E-6,0.000354
4.880000E-6,0.000405
4.890000E-6,0.000474
4.900000E-6,0.000469
4.910000E-6,0.000385
4.920000E-6,0.000296
4.930000E-6,0.000246
4.940000E-6,0.000219
4.950000E-6,0.000192
4.960000E-6,0.000187
4.970000E-6,0.000168
4.980000E-6,0.000171
4.990000E-6,0.000224
5.000000E-6,0.000238
5.010000E-6,0.000209
5.020000E-6,0.000138
5.030000E-6,4.010861E-5
5.040000E-6,-3.949080E-5
5.050000E-6,-1.939386E-6
5.060000E-6,0.000106
5.070000E-6,0.000123
5.080000E-6,4.748498E-5
5.090000E-6,1.005246E-5
5.100000E-6,-1.887642E-5
5.110000E-6,-7.524150E-5
5.120000E-6,-7.233213E-5
5.130000E-6,-9.082032E-5
5.140000E-6,-0.000166
5.150000E-6,-0.000252
5.160000E-6,-0.000284
5.170000E-6,-0.000265
5.180000E-6,-0.000267
5.190000E-6,-0.000327
5.200000E-6,-0.000404
5.210000E-6,-0.000479
5.220000E-6,-0.000543
5.230000E-6,-0.000503
5.240000E-6,-0.000450
5.250000E-6,-0.000441
5.260000E-6,-0.000439
5.270000E-6,-0.000351
5.280000E-6,-0.000280
5.290000E-6,-0.000318
5.300000E-6,-0.000296
5.310000E-6,-0.000233
5.320000E-6,-0.000164
5.330000E-6,-9.783267E-5
5.340000E-6,-6.226516E-5
5.350000E-6,-3.505135E-5
5.360000E-6,-1.656287E-6
5.370000E-6,-5.164464E-6
5.380000E-6,-3.707081E-5
5.390000E-6,-3.206898E-5
5.400000E-6,1.560145E-5
5.410000E-6,6.861760E-5
5.420000E-6,6.249350E-5
5.430000E-6,4.223118E-5
5.440000E-6,8.685921E-5
5.450000E-6,0.000101
5.460000E-6,0.000108
5.470000E-6,0.000114
5.480000E-6,9.800535E-5
5.490000E-6,0.000118
5.500000E-6,8.788112E-5
5.510000E-6,0.000123
5.520000E-6,0.000170
5.530000E-6,0.000173
5.540000E-6,0.000254
5.550000E-6,0.000310
5.560000E-6,0.000306
5.570000E-6,0.000181
5.580000E-6,0.000131
5.590000E-6,0.000147
5.600000E-6,8.432509E-5
5.610000E-6,0.000102
5.620000E-6,0.000162
5.630000E-6,0.000162
5.640000E-6,0.000219
5.650000E-6,0.000259
5.660000E-6,0.000133
5.670000E-6,1.896229E-5
5.680000E-6,-4.820996E-5
5.690000E-6,-9.141973E-5
5.700000E-6,-7.581681E-5
5.710000E-6,-7.494177E-5
5.720000E-6,-7.398297E-5
5.730000E-6,-3.727499E-5
5.740000E-6,-8.747562E-5
5.750000E-6,-0.000171
5.760000E-6,-0.000188
5.770000E-6,-0.000246
5.780000E-6,-0.000344
5.790000E-6,-0.000360
5.800000E-6,-0.000353
5.810000E-6,-0.000382
5.820000E-6,-0.000431
5.830000E-6,-0.000419
5.840000E-6,-0.000351
5.850000E-6,-0.000349
5.860000E-6,-0.000289
5.870000E-6,-0.000245
5.880000E-6,-0.000310
5.890000E-6,-0.000386
5.900000E-6,-0.000465
5.910000E-6,-0.000484
5.920000E-6,-0.000509
5.930000E-6,-0.000560
5.940000E-6,-0.000580
5.950000E-6,-0.000584
5.960000E-6,-0.000588
5.970000E-6,-0.000540
5.980000E-6,-0.000450
5.990000E-6,-0.000449
6.000000E-6,-0.000518
6.010000E-6,-0.000562
6.020000E-6,-0.000554
6.030000E-6,-0.000524
6.040000E-6,-0.000473
6.050000E-6,-0.000438
6.060000E-6,-0.000374
6.070000E-6,-0.000341
6.080000E-6,-0.000387
6.090000E-6,-0.000430
6.100000E-6,-0.000450
6.110000E-6,-0.000426
6.120000E-6,-0.000452
6.130000E-6,-0.000426
6.140000E-6,-0.000380
6.150000E-6,-0.000355
6.160000E-6,-0.000303
6.170000E-6,-0.000359
6.180000E-6,-0.000455
6.190000E-6,-0.000511
6.200000E-6,-0.000515
6.210000E-6,-0.000496
6.220000E-6,-0.000456
6.230000E-6,-0.000402
6.240000E-6,-0.000421
6.250000E-6,-0.000431
6.260000E-6,-0.000348
6.270000E-6,-0.000324
6.280000E-6,-0.000286
6.290000E-6,-0.000200
6.300000E-6,-0.000159
6.310000E-6,-0.000105
6.320000E-6,-0.000167
6.330000E-6,-0.000248
6.340000E-6,-0.000154
6.350000E-6,-7.048806E-5
6.360000E-6,-6.858364E-5
6.370000E-6,-3.097341E-5
6.380000E-6,1.242702E-5
6.390000E-6,3.280013E-5
6.400000E-6,9.564483E-6
6.410000E-6,-9.843411E-5
6.420000E-6,-0.000131
6.430000E-6,-0.000112
6.440000E-6,-0.000129
6.450000E-6,-0.000110
6.460000E-6,-7.029494E-5
6.470000E-6,-6.731843E-5
6.480000E-6,-5.007973E-5
6.490000E-6,3.793863E-5
6.500000E-6,0.000108
6.510000E-6,0.000119
6.520000E-6,7.903464E-5
6.530000E-6,6.186539E-5
6.540000E-6,7.377161E-5
6.550000E-6,0.000107
6.560000E-6,0.000166
6.570000E-6,0.000231
6.580000E-6,0.000236
6.590000E-6,0.000190
6.600000E-6,0.000246
6.610000E-6,0.000320
6.620000E-6,0.000306
6.630000E-6,0.000299
6.640000E-6,0.000341
6.650000E-6,0.000403
6.660000E-6,0.000433
6.670000E-6,0.000448
6.680000E-6,0.000411
6.690000E-6,0.000325
6.700000E-6,0.000320
6.710000E-6,0.000358
6.720000E-6,0.000329
6.730000E-6,0.000273
6.740000E-6,0.000218
6.750000E-6,0.000243
6.760000E-6,0.000296
6.770000E-6,0.000267
6.780000E-6,0.000233
6.790000E-6,9.165957E-5
6.800000E-6,-5.131946E-5
6.810000E-6,-4.624791E-5
6.820000E-6,-4.129236E-5
6.830000E-6,-6.499219E-5
6.840000E-6,-0.000145
6.850000E-6,-0.000200
6.860000E-6,-0.000160
6.870000E-6,-0.000164
6.880000E-6,-0.000168
6.890000E-6,-0.000243
6.900000E-6,-0.000329
6.910000E-6,-0.000318
6.920000E-6,-0.000257
6.930000E-6,-0.000198
6.940000E-6,-0.000220
6.950000E-6,-0.000283
6.960000E-6,-0.000315
6.970000E-6,-0.000288
6.980000E-6,-0.000248
6.990000E-6,-0.000187
7.000000E-6,-0.000192
7.010000E-6,-0.000218
7.020000E-6,-0.000243
7.030000E-6,-0.000274
7.040000E-6,-0.000282
7.050000E-6,-0.000275
7.060000E-6,-0.000303
7.070000E-6,-0.000308
7.080000E-6,-0.000256
7.090000E-6,-0.000276
7.100000E-6,-0.000310
7.110000E-6,-0.000313
7.120000E-6,-0.000273
7.130000E-6,-0.000199
7.140000E-6,-0.000141
7.150000E-6,-0.000127
7.160000E-6,-7.158315E-5
7.170000E-6,1.074574E-5
7.180000E-6,6.147532E-5
7.190000E-6,5.316033E-5
7.200000E-6,1.653467E-5
7.210000E-6,5.971272E-5
7.220000E-6,7.979839E-5
7.230000E-6,9.188309E-5
7.240000E-6,0.000111
7.250000E-6,9.974459E-5
7.260000E-6,0.000118
7.270000E-6,0.000142
7.280000E-6,0.000130
7.290000E-6,7.452739E-5
7.300000E-6,2.854788E-5
7.310000E-6,2.702963E-5
7.320000E-6,2.552567E-5
7.330000E-6,8.110978E-5
7.340000E-6,0.000149
7.350000E-6,0.000164
7.360000E-6,0.000171
7.370000E-6,0.000170
7.380000E-6,0.000255
7.390000E-6,0.000308
7.400000E-6,0.000287
7.410000E-6,0.000344
7.420000E-6,0.000378
7.430000E-6,0.000396
7.440000E-6,0.000476
7.450000E-6,0.000517
7.460000E-6,0.000456
7.470000E-6,0.000389
7.480000E-6,0.000325
7.490000E-6,0.000276
7.500000E-6,0.000264
7.510000E-6,0.000296
7.520000E-6,0.000340
7.530000E-6,0.000317
7.540000E-6,0.000266
7.550000E-6,0.000182
7.560000E-6,0.000121
7.570000E-6,0.000148
7.580000E-6,0.000217
7.590000E-6,0.000154
7.600000E-6,7.194227E-5
7.610000E-6,0.000114
7.620000E-6,0.000126
7.630000E-6,7.319442E-5
7.640000E-6,0.000101
7.650000E-6,0.000134
7.660000E-6,0.000109
7.670000E-6,0.000113
7.680000E-6,6.690727E-5
7.690000E-6,-3.466811E-5
7.700000E-6,-8.962688E-5
7.710000E-6,-0.000135
7.720000E-6,-0.000136
7.730000E-6,-0.000130
7.740000E-6,-0.000273
7.750000E-6,-0.000439
7.760000E-6,-0.000499
7.770000E-6,-0.000520
7.780000E-6,-0.000503
7.790000E-6,-0.000444
7.800000E-6,-0.000336
7.810000E-6,-0.000332
7.820000E-6,-0.000406
7.830000E-6,-0.000355
7.840000E-6,-0.000291
7.850000E-6,-0.000293
7.860000E-6,-0.000302
7.870000E-6,-0.000331
7.880000E-6,-0.000352
7.890000E-6,-0.000343
7.900000E-6,-0.000312
7.910000E-6,-0.000232
7.920000E-6,-0.000212
7.930000E-6,-0.000177
7.940000E-6,-0.000144
7.950000E-6,-0.000205
7.960000E-6,-0.000191
7.970000E-6,-0.000107
7.980000E-6,-8.964916E-5
7.990000E-6,-0.000108
8.000000E-6,-0.000112
8.010000E-6,-6.566467E-5
8.020000E-6,-4.928231E-5
8.030000E-6,-4.056381E-5
8.040000E-6,3.564919E-6
8.050000E-6,3.178710E-5
8.060000E-6,5.891562E-5
8.070000E-6,7.068092E-5
8.080000E-6,0.000110
8.090000E-6,0.000170
8.100000E-6,0.000163
8.110000E-6,8.431399E-5
8.120000E-6,0.000144
8.130000E-6,0.000202
8.140000E-6,0.000207
8.150000E-6,0.000261
8.160000E-6,0.000263
8.170000E-6,0.000265
8.180000E-6,0.000244
8.190000E-6,0.000225
8.200000E-6,0.000198
8.210000E-6,0.000151
8.220000E-6,0.000126
8.230000E-6,7.389962E-5
8.240000E-6,9.187322E-6
8.250000E-6,3.927509E-6
8.260000E-6,-5.108173E-5
8.270000E-6,-6.117215E-5
8.280000E-6,-5.652635E-5
8.290000E-6,-9.476885E-5
8.300000E-6,-0.000110
8.310000E-6,-0.000132
8.320000E-6,-0.000202
8.330000E-6,-0.000270
8.340000E-6,-0.000256
8.350000E-6,-0.000178
8.360000E-6,-0.000196
8.370000E-6,-0.000312
8.380000E-6,-0.000339
8.390000E-6,-0.000370
8.400000E-6,-0.000329
8.410000E-6,-0.000303
8.420000E-6,-0.000334
8.430000E-6,-0.000343
8.440000E-6,-0.000364
8.450000E-6,-0.000328
8.460000E-6,-0.000292
8.470000E-6,-0.000236
8.480000E-6,-0.000145
8.490000E-6,-7.968284E-5
8.500000E-6,-5.191466E-5
8.510000E-6,-4.649560E-5
8.520000E-6,-9.114300E-5
8.530000E-6,-0.000191
8.540000E-6,-0.000223
8.550000E-6,-0.000224
8.560000E-6,-0.000233
8.570000E-6,-0.000198
8.580000E-6,-0.000178
8.590000E-6,-0.000201
8.600000E-6,-0.000181
8.610000E-6,-0.000154
8.620000E-6,-8.442640E-5
8.630000E-6,-1.762482E-5
8.640000E-6,-5.314396E-5
8.650000E-6,-0.000123
8.660000E-6,-0.000240
8.670000E-6,-0.000267
8.680000E-6,-0.000263
8.690000E-6,-0.000267
8.700000E-6,-0.000177
8.710000E-6,-0.000112
8.720000E-6,-0.000177
8.730000E-6,-0.000204
8.740000E-6,-0.000187
8.750000E-6,-0.000192
8.760000E-6,-0.000139
8.770000E-6,-8.053475E-5
8.780000E-6,-9.561243E-5
8.790000E-6,-0.000124
8.800000E-6,-0.000116
8.810000E-6,-0.000108
8.820000E-6,-4.985360E-5
8.830000E-6,-8.229801E-6
8.840000E-6,-1.093757E-5
8.850000E-6,7.398200E-7
8.860000E-6,-4.508806E-5
8.870000E-6,-0.000118
8.880000E-6,-4.473530E-5
